# E (eV)  dos(E)    pdos(E)
  -9.334  0.278E-06  0.276E-06
  -9.234  0.127E-05  0.127E-05
  -9.134  0.523E-05  0.520E-05
  -9.034  0.192E-04  0.191E-04
  -8.934  0.632E-04  0.628E-04
  -8.834  0.187E-03  0.186E-03
  -8.734  0.497E-03  0.494E-03
  -8.634  0.119E-02  0.119E-02
  -8.534  0.259E-02  0.257E-02
  -8.434  0.510E-02  0.507E-02
  -8.334  0.916E-02  0.911E-02
  -8.234  0.151E-01  0.150E-01
  -8.134  0.229E-01  0.228E-01
  -8.034  0.324E-01  0.322E-01
  -7.934  0.429E-01  0.427E-01
  -7.834  0.538E-01  0.534E-01
  -7.734  0.643E-01  0.639E-01
  -7.634  0.742E-01  0.737E-01
  -7.534  0.832E-01  0.827E-01
  -7.434  0.914E-01  0.908E-01
  -7.334  0.988E-01  0.982E-01
  -7.234  0.106E+00  0.105E+00
  -7.134  0.112E+00  0.111E+00
  -7.034  0.118E+00  0.117E+00
  -6.934  0.124E+00  0.123E+00
  -6.834  0.129E+00  0.128E+00
  -6.734  0.135E+00  0.134E+00
  -6.634  0.140E+00  0.139E+00
  -6.534  0.145E+00  0.144E+00
  -6.434  0.150E+00  0.149E+00
  -6.334  0.155E+00  0.153E+00
  -6.234  0.159E+00  0.158E+00
  -6.134  0.163E+00  0.162E+00
  -6.034  0.167E+00  0.166E+00
  -5.934  0.172E+00  0.171E+00
  -5.834  0.177E+00  0.176E+00
  -5.734  0.182E+00  0.180E+00
  -5.634  0.185E+00  0.184E+00
  -5.534  0.188E+00  0.187E+00
  -5.434  0.191E+00  0.190E+00
  -5.334  0.196E+00  0.195E+00
  -5.234  0.201E+00  0.200E+00
  -5.134  0.207E+00  0.205E+00
  -5.034  0.211E+00  0.209E+00
  -4.934  0.213E+00  0.212E+00
  -4.834  0.215E+00  0.214E+00
  -4.734  0.218E+00  0.216E+00
  -4.634  0.222E+00  0.220E+00
  -4.534  0.227E+00  0.226E+00
  -4.434  0.234E+00  0.232E+00
  -4.334  0.240E+00  0.238E+00
  -4.234  0.243E+00  0.242E+00
  -4.134  0.245E+00  0.243E+00
  -4.034  0.245E+00  0.244E+00
  -3.934  0.247E+00  0.246E+00
  -3.834  0.252E+00  0.250E+00
  -3.734  0.258E+00  0.257E+00
  -3.634  0.266E+00  0.265E+00
  -3.534  0.274E+00  0.272E+00
  -3.434  0.279E+00  0.277E+00
  -3.334  0.281E+00  0.279E+00
  -3.234  0.282E+00  0.280E+00
  -3.134  0.283E+00  0.282E+00
  -3.034  0.288E+00  0.286E+00
  -2.934  0.295E+00  0.294E+00
  -2.834  0.306E+00  0.305E+00
  -2.734  0.319E+00  0.317E+00
  -2.634  0.330E+00  0.329E+00
  -2.534  0.340E+00  0.338E+00
  -2.434  0.346E+00  0.344E+00
  -2.334  0.349E+00  0.347E+00
  -2.234  0.350E+00  0.348E+00
  -2.134  0.351E+00  0.349E+00
  -2.034  0.352E+00  0.351E+00
  -1.934  0.355E+00  0.353E+00
  -1.834  0.357E+00  0.355E+00
  -1.734  0.355E+00  0.354E+00
  -1.634  0.348E+00  0.347E+00
  -1.534  0.337E+00  0.336E+00
  -1.434  0.323E+00  0.322E+00
  -1.334  0.311E+00  0.310E+00
  -1.234  0.303E+00  0.301E+00
  -1.134  0.299E+00  0.297E+00
  -1.034  0.297E+00  0.296E+00
  -0.934  0.294E+00  0.293E+00
  -0.834  0.288E+00  0.287E+00
  -0.734  0.280E+00  0.279E+00
  -0.634  0.270E+00  0.269E+00
  -0.534  0.263E+00  0.262E+00
  -0.434  0.260E+00  0.259E+00
  -0.334  0.262E+00  0.261E+00
  -0.234  0.268E+00  0.266E+00
  -0.134  0.275E+00  0.274E+00
  -0.034  0.282E+00  0.280E+00
   0.066  0.287E+00  0.286E+00
   0.166  0.291E+00  0.290E+00
   0.266  0.293E+00  0.292E+00
   0.366  0.295E+00  0.293E+00
   0.466  0.296E+00  0.294E+00
   0.566  0.298E+00  0.296E+00
   0.666  0.300E+00  0.298E+00
   0.766  0.301E+00  0.299E+00
   0.866  0.303E+00  0.301E+00
   0.966  0.307E+00  0.305E+00
   1.066  0.317E+00  0.315E+00
   1.166  0.335E+00  0.333E+00
   1.266  0.363E+00  0.361E+00
   1.366  0.398E+00  0.396E+00
   1.466  0.437E+00  0.435E+00
   1.566  0.472E+00  0.469E+00
   1.666  0.496E+00  0.494E+00
   1.766  0.509E+00  0.506E+00
   1.866  0.510E+00  0.507E+00
   1.966  0.503E+00  0.501E+00
   2.066  0.491E+00  0.488E+00
   2.166  0.474E+00  0.472E+00
   2.266  0.452E+00  0.450E+00
   2.366  0.427E+00  0.425E+00
   2.466  0.400E+00  0.399E+00
   2.566  0.376E+00  0.375E+00
   2.666  0.359E+00  0.357E+00
   2.766  0.347E+00  0.346E+00
   2.866  0.339E+00  0.338E+00
   2.966  0.331E+00  0.330E+00
   3.066  0.320E+00  0.319E+00
   3.166  0.309E+00  0.308E+00
   3.266  0.300E+00  0.299E+00
   3.366  0.298E+00  0.297E+00
   3.466  0.304E+00  0.303E+00
   3.566  0.318E+00  0.316E+00
   3.666  0.335E+00  0.334E+00
   3.766  0.354E+00  0.352E+00
   3.866  0.373E+00  0.371E+00
   3.966  0.393E+00  0.391E+00
   4.066  0.414E+00  0.413E+00
   4.166  0.438E+00  0.436E+00
   4.266  0.461E+00  0.459E+00
   4.366  0.481E+00  0.479E+00
   4.466  0.495E+00  0.493E+00
   4.566  0.502E+00  0.500E+00
   4.666  0.503E+00  0.502E+00
   4.766  0.502E+00  0.501E+00
   4.866  0.503E+00  0.501E+00
   4.966  0.506E+00  0.504E+00
   5.066  0.512E+00  0.511E+00
   5.166  0.519E+00  0.518E+00
   5.266  0.525E+00  0.523E+00
   5.366  0.528E+00  0.526E+00
   5.466  0.529E+00  0.528E+00
   5.566  0.532E+00  0.530E+00
   5.666  0.538E+00  0.536E+00
   5.766  0.548E+00  0.547E+00
   5.866  0.563E+00  0.561E+00
   5.966  0.578E+00  0.577E+00
   6.066  0.592E+00  0.590E+00
   6.166  0.603E+00  0.602E+00
   6.266  0.614E+00  0.612E+00
   6.366  0.627E+00  0.626E+00
   6.466  0.646E+00  0.645E+00
   6.566  0.671E+00  0.669E+00
   6.666  0.698E+00  0.697E+00
   6.766  0.725E+00  0.723E+00
   6.866  0.747E+00  0.745E+00
   6.966  0.762E+00  0.760E+00
   7.066  0.770E+00  0.768E+00
   7.166  0.771E+00  0.769E+00
   7.266  0.765E+00  0.764E+00
   7.366  0.757E+00  0.755E+00
   7.466  0.749E+00  0.747E+00
   7.566  0.746E+00  0.744E+00
   7.666  0.748E+00  0.746E+00
   7.766  0.752E+00  0.750E+00
   7.866  0.753E+00  0.751E+00
   7.966  0.747E+00  0.745E+00
   8.066  0.734E+00  0.733E+00
   8.166  0.720E+00  0.718E+00
   8.266  0.708E+00  0.706E+00
   8.366  0.700E+00  0.699E+00
   8.466  0.697E+00  0.696E+00
   8.566  0.697E+00  0.695E+00
   8.666  0.697E+00  0.695E+00
   8.766  0.696E+00  0.695E+00
   8.866  0.693E+00  0.692E+00
   8.966  0.688E+00  0.686E+00
   9.066  0.680E+00  0.678E+00
   9.166  0.671E+00  0.669E+00
   9.266  0.661E+00  0.660E+00
   9.366  0.654E+00  0.652E+00
   9.466  0.648E+00  0.646E+00
   9.566  0.644E+00  0.643E+00
   9.666  0.642E+00  0.641E+00
   9.766  0.640E+00  0.639E+00
   9.866  0.636E+00  0.635E+00
   9.966  0.628E+00  0.626E+00
  10.066  0.614E+00  0.613E+00
  10.166  0.594E+00  0.592E+00
  10.266  0.568E+00  0.567E+00
  10.366  0.538E+00  0.537E+00
  10.466  0.506E+00  0.504E+00
  10.566  0.473E+00  0.472E+00
  10.666  0.442E+00  0.440E+00
  10.766  0.413E+00  0.412E+00
  10.866  0.387E+00  0.386E+00
  10.966  0.362E+00  0.361E+00
  11.066  0.339E+00  0.338E+00
  11.166  0.316E+00  0.315E+00
  11.266  0.294E+00  0.293E+00
  11.366  0.274E+00  0.273E+00
  11.466  0.257E+00  0.256E+00
  11.566  0.242E+00  0.241E+00
  11.666  0.228E+00  0.227E+00
  11.766  0.215E+00  0.214E+00
  11.866  0.202E+00  0.202E+00
  11.966  0.190E+00  0.189E+00
  12.066  0.176E+00  0.175E+00
  12.166  0.163E+00  0.162E+00
  12.266  0.149E+00  0.148E+00
  12.366  0.136E+00  0.136E+00
  12.466  0.124E+00  0.123E+00
  12.566  0.111E+00  0.111E+00
  12.666  0.988E-01  0.982E-01
  12.766  0.855E-01  0.850E-01
  12.866  0.716E-01  0.711E-01
  12.966  0.575E-01  0.571E-01
  13.066  0.438E-01  0.436E-01
  13.166  0.315E-01  0.313E-01
  13.266  0.211E-01  0.210E-01
  13.366  0.131E-01  0.130E-01
  13.466  0.753E-02  0.748E-02
  13.566  0.396E-02  0.393E-02
  13.666  0.190E-02  0.189E-02
  13.766  0.827E-03  0.821E-03
  13.866  0.326E-03  0.324E-03
  13.966  0.116E-03  0.115E-03
  14.066  0.370E-04  0.368E-04
  14.166  0.106E-04  0.106E-04
  14.266  0.273E-05  0.271E-05
  14.366  0.629E-06  0.625E-06
  14.466  0.130E-06  0.129E-06
  14.566  0.239E-07  0.237E-07
  14.666  0.392E-08  0.389E-08
  14.766  0.575E-09  0.571E-09
  14.866  0.753E-10  0.748E-10
  14.966  0.880E-11  0.873E-11
  15.066  0.914E-12  0.908E-12
  15.166  0.986E-13  0.969E-13
  15.266  0.176E-12  0.163E-12
  15.366  0.186E-11  0.172E-11
  15.466  0.174E-10  0.161E-10
  15.566  0.145E-09  0.133E-09
  15.666  0.107E-08  0.987E-09
  15.766  0.705E-08  0.651E-08
  15.866  0.415E-07  0.383E-07
  15.966  0.218E-06  0.201E-06
  16.066  0.103E-05  0.947E-06
  16.166  0.433E-05  0.399E-05
  16.266  0.164E-04  0.151E-04
  16.366  0.559E-04  0.515E-04
  16.466  0.172E-03  0.158E-03
  16.566  0.477E-03  0.439E-03
  16.666  0.120E-02  0.110E-02
  16.766  0.274E-02  0.252E-02
  16.866  0.571E-02  0.525E-02
  16.966  0.109E-01  0.100E-01
  17.066  0.191E-01  0.175E-01
  17.166  0.308E-01  0.282E-01
  17.266  0.462E-01  0.423E-01
  17.366  0.650E-01  0.593E-01
  17.466  0.861E-01  0.785E-01
  17.566  0.109E+00  0.990E-01
  17.666  0.133E+00  0.120E+00
  17.766  0.158E+00  0.142E+00
  17.866  0.183E+00  0.165E+00
  17.966  0.210E+00  0.188E+00
  18.066  0.236E+00  0.211E+00
  18.166  0.261E+00  0.233E+00
  18.266  0.285E+00  0.253E+00
  18.366  0.307E+00  0.273E+00
  18.466  0.328E+00  0.291E+00
  18.566  0.349E+00  0.310E+00
  18.666  0.370E+00  0.329E+00
  18.766  0.391E+00  0.348E+00
  18.866  0.413E+00  0.366E+00
  18.966  0.434E+00  0.384E+00
  19.066  0.456E+00  0.402E+00
  19.166  0.477E+00  0.420E+00
  19.266  0.497E+00  0.437E+00
  19.366  0.515E+00  0.451E+00
  19.466  0.530E+00  0.464E+00
  19.566  0.542E+00  0.473E+00
  19.666  0.552E+00  0.481E+00
  19.766  0.560E+00  0.488E+00
  19.866  0.567E+00  0.494E+00
  19.966  0.575E+00  0.500E+00
  20.066  0.587E+00  0.510E+00
  20.166  0.605E+00  0.525E+00
  20.266  0.629E+00  0.545E+00
  20.366  0.658E+00  0.569E+00
  20.466  0.689E+00  0.593E+00
  20.566  0.719E+00  0.617E+00
  20.666  0.749E+00  0.641E+00
  20.766  0.780E+00  0.666E+00
  20.866  0.815E+00  0.695E+00
  20.966  0.850E+00  0.726E+00
  21.066  0.883E+00  0.755E+00
  21.166  0.910E+00  0.778E+00
  21.266  0.928E+00  0.794E+00
  21.366  0.938E+00  0.804E+00
  21.466  0.942E+00  0.809E+00
  21.566  0.944E+00  0.813E+00
  21.666  0.945E+00  0.817E+00
  21.766  0.945E+00  0.819E+00
  21.866  0.945E+00  0.821E+00
  21.966  0.944E+00  0.820E+00
  22.066  0.940E+00  0.816E+00
  22.166  0.933E+00  0.808E+00
  22.266  0.926E+00  0.799E+00
  22.366  0.921E+00  0.790E+00
  22.466  0.920E+00  0.785E+00
  22.566  0.921E+00  0.782E+00
  22.666  0.918E+00  0.777E+00
  22.766  0.904E+00  0.763E+00
  22.866  0.873E+00  0.736E+00
  22.966  0.826E+00  0.695E+00
  23.066  0.770E+00  0.646E+00
  23.166  0.715E+00  0.599E+00
  23.266  0.675E+00  0.564E+00
  23.366  0.657E+00  0.549E+00
  23.466  0.664E+00  0.554E+00
  23.566  0.690E+00  0.576E+00
  23.666  0.723E+00  0.604E+00
  23.766  0.750E+00  0.625E+00
  23.866  0.756E+00  0.629E+00
  23.966  0.733E+00  0.608E+00
  24.066  0.683E+00  0.564E+00
  24.166  0.617E+00  0.508E+00
  24.266  0.554E+00  0.456E+00
  24.366  0.509E+00  0.420E+00
  24.466  0.492E+00  0.409E+00
  24.566  0.503E+00  0.423E+00
  24.666  0.536E+00  0.456E+00
  24.766  0.582E+00  0.500E+00
  24.866  0.631E+00  0.547E+00
  24.966  0.672E+00  0.586E+00
  25.066  0.698E+00  0.610E+00
  25.166  0.704E+00  0.613E+00
  25.266  0.691E+00  0.599E+00
  25.366  0.666E+00  0.573E+00
  25.466  0.641E+00  0.546E+00
  25.566  0.624E+00  0.528E+00
  25.666  0.621E+00  0.523E+00
  25.766  0.634E+00  0.535E+00
  25.866  0.664E+00  0.563E+00
  25.966  0.708E+00  0.605E+00
  26.066  0.761E+00  0.653E+00
  26.166  0.812E+00  0.701E+00
  26.266  0.853E+00  0.738E+00
  26.366  0.876E+00  0.758E+00
  26.466  0.878E+00  0.758E+00
  26.566  0.862E+00  0.741E+00
  26.666  0.834E+00  0.713E+00
  26.766  0.803E+00  0.685E+00
  26.866  0.777E+00  0.662E+00
  26.966  0.761E+00  0.649E+00
  27.066  0.758E+00  0.647E+00
  27.166  0.766E+00  0.655E+00
  27.266  0.785E+00  0.672E+00
  27.366  0.813E+00  0.696E+00
  27.466  0.845E+00  0.723E+00
  27.566  0.872E+00  0.745E+00
  27.666  0.883E+00  0.753E+00
  27.766  0.870E+00  0.740E+00
  27.866  0.832E+00  0.707E+00
  27.966  0.781E+00  0.662E+00
  28.066  0.730E+00  0.618E+00
  28.166  0.692E+00  0.586E+00
  28.266  0.674E+00  0.571E+00
  28.366  0.670E+00  0.567E+00
  28.466  0.670E+00  0.567E+00
  28.566  0.662E+00  0.558E+00
  28.666  0.635E+00  0.535E+00
  28.766  0.586E+00  0.494E+00
  28.866  0.520E+00  0.439E+00
  28.966  0.446E+00  0.379E+00
  29.066  0.374E+00  0.323E+00
  29.166  0.314E+00  0.277E+00
  29.266  0.269E+00  0.243E+00
  29.366  0.238E+00  0.219E+00
  29.466  0.216E+00  0.202E+00
  29.566  0.198E+00  0.187E+00
  29.666  0.179E+00  0.171E+00
  29.766  0.159E+00  0.153E+00
  29.866  0.138E+00  0.133E+00
  29.966  0.116E+00  0.112E+00
  30.066  0.958E-01  0.927E-01
  30.166  0.763E-01  0.740E-01
  30.266  0.582E-01  0.565E-01
  30.366  0.419E-01  0.408E-01
  30.466  0.281E-01  0.274E-01
  30.566  0.174E-01  0.170E-01
  30.666  0.987E-02  0.964E-02
  30.766  0.508E-02  0.497E-02
  30.866  0.237E-02  0.232E-02
  30.966  0.100E-02  0.979E-03
  31.066  0.380E-03  0.373E-03
  31.166  0.130E-03  0.128E-03
  31.266  0.402E-04  0.394E-04
  31.366  0.112E-04  0.110E-04
  31.466  0.279E-05  0.274E-05
  31.566  0.626E-06  0.614E-06
  31.666  0.126E-06  0.124E-06
