# E (eV)   ldos(E)   pdos(E)    pdos(E)    pdos(E)   
  -9.334  0.561E-08  0.187E-08  0.187E-08  0.187E-08
  -9.234  0.274E-07  0.912E-08  0.912E-08  0.912E-08
  -9.134  0.120E-06  0.399E-07  0.399E-07  0.399E-07
  -9.034  0.471E-06  0.157E-06  0.157E-06  0.157E-06
  -8.934  0.167E-05  0.556E-06  0.556E-06  0.556E-06
  -8.834  0.532E-05  0.177E-05  0.177E-05  0.177E-05
  -8.734  0.153E-04  0.512E-05  0.512E-05  0.512E-05
  -8.634  0.401E-04  0.134E-04  0.134E-04  0.134E-04
  -8.534  0.952E-04  0.317E-04  0.317E-04  0.317E-04
  -8.434  0.206E-03  0.688E-04  0.688E-04  0.688E-04
  -8.334  0.410E-03  0.137E-03  0.137E-03  0.137E-03
  -8.234  0.748E-03  0.249E-03  0.249E-03  0.249E-03
  -8.134  0.127E-02  0.422E-03  0.422E-03  0.422E-03
  -8.034  0.199E-02  0.665E-03  0.665E-03  0.665E-03
  -7.934  0.294E-02  0.982E-03  0.982E-03  0.982E-03
  -7.834  0.411E-02  0.137E-02  0.137E-02  0.137E-02
  -7.734  0.545E-02  0.182E-02  0.182E-02  0.182E-02
  -7.634  0.694E-02  0.231E-02  0.231E-02  0.231E-02
  -7.534  0.851E-02  0.284E-02  0.284E-02  0.284E-02
  -7.434  0.101E-01  0.338E-02  0.338E-02  0.338E-02
  -7.334  0.118E-01  0.393E-02  0.393E-02  0.393E-02
  -7.234  0.135E-01  0.448E-02  0.448E-02  0.448E-02
  -7.134  0.151E-01  0.504E-02  0.504E-02  0.504E-02
  -7.034  0.167E-01  0.558E-02  0.558E-02  0.558E-02
  -6.934  0.183E-01  0.611E-02  0.611E-02  0.611E-02
  -6.834  0.199E-01  0.663E-02  0.663E-02  0.663E-02
  -6.734  0.214E-01  0.714E-02  0.714E-02  0.714E-02
  -6.634  0.230E-01  0.766E-02  0.766E-02  0.766E-02
  -6.534  0.245E-01  0.817E-02  0.817E-02  0.817E-02
  -6.434  0.260E-01  0.866E-02  0.866E-02  0.866E-02
  -6.334  0.274E-01  0.913E-02  0.913E-02  0.913E-02
  -6.234  0.287E-01  0.957E-02  0.957E-02  0.957E-02
  -6.134  0.300E-01  0.100E-01  0.100E-01  0.100E-01
  -6.034  0.314E-01  0.105E-01  0.105E-01  0.105E-01
  -5.934  0.329E-01  0.110E-01  0.110E-01  0.110E-01
  -5.834  0.343E-01  0.114E-01  0.114E-01  0.114E-01
  -5.734  0.356E-01  0.119E-01  0.119E-01  0.119E-01
  -5.634  0.367E-01  0.122E-01  0.122E-01  0.122E-01
  -5.534  0.377E-01  0.126E-01  0.126E-01  0.126E-01
  -5.434  0.388E-01  0.129E-01  0.129E-01  0.129E-01
  -5.334  0.402E-01  0.134E-01  0.134E-01  0.134E-01
  -5.234  0.417E-01  0.139E-01  0.139E-01  0.139E-01
  -5.134  0.431E-01  0.144E-01  0.144E-01  0.144E-01
  -5.034  0.443E-01  0.148E-01  0.148E-01  0.148E-01
  -4.934  0.452E-01  0.151E-01  0.151E-01  0.151E-01
  -4.834  0.459E-01  0.153E-01  0.153E-01  0.153E-01
  -4.734  0.468E-01  0.156E-01  0.156E-01  0.156E-01
  -4.634  0.479E-01  0.160E-01  0.160E-01  0.160E-01
  -4.534  0.495E-01  0.165E-01  0.165E-01  0.165E-01
  -4.434  0.511E-01  0.170E-01  0.170E-01  0.170E-01
  -4.334  0.526E-01  0.175E-01  0.175E-01  0.175E-01
  -4.234  0.537E-01  0.179E-01  0.179E-01  0.179E-01
  -4.134  0.542E-01  0.181E-01  0.181E-01  0.181E-01
  -4.034  0.545E-01  0.182E-01  0.182E-01  0.182E-01
  -3.934  0.551E-01  0.184E-01  0.184E-01  0.184E-01
  -3.834  0.563E-01  0.188E-01  0.188E-01  0.188E-01
  -3.734  0.580E-01  0.193E-01  0.193E-01  0.193E-01
  -3.634  0.600E-01  0.200E-01  0.200E-01  0.200E-01
  -3.534  0.617E-01  0.206E-01  0.206E-01  0.206E-01
  -3.434  0.628E-01  0.209E-01  0.209E-01  0.209E-01
  -3.334  0.634E-01  0.211E-01  0.211E-01  0.211E-01
  -3.234  0.636E-01  0.212E-01  0.212E-01  0.212E-01
  -3.134  0.639E-01  0.213E-01  0.213E-01  0.213E-01
  -3.034  0.648E-01  0.216E-01  0.216E-01  0.216E-01
  -2.934  0.664E-01  0.221E-01  0.221E-01  0.221E-01
  -2.834  0.686E-01  0.229E-01  0.229E-01  0.229E-01
  -2.734  0.710E-01  0.237E-01  0.237E-01  0.237E-01
  -2.634  0.731E-01  0.244E-01  0.244E-01  0.244E-01
  -2.534  0.747E-01  0.249E-01  0.249E-01  0.249E-01
  -2.434  0.754E-01  0.251E-01  0.251E-01  0.251E-01
  -2.334  0.756E-01  0.252E-01  0.252E-01  0.252E-01
  -2.234  0.755E-01  0.252E-01  0.252E-01  0.252E-01
  -2.134  0.756E-01  0.252E-01  0.252E-01  0.252E-01
  -2.034  0.760E-01  0.253E-01  0.253E-01  0.253E-01
  -1.934  0.769E-01  0.256E-01  0.256E-01  0.256E-01
  -1.834  0.778E-01  0.259E-01  0.259E-01  0.259E-01
  -1.734  0.781E-01  0.260E-01  0.260E-01  0.260E-01
  -1.634  0.772E-01  0.257E-01  0.257E-01  0.257E-01
  -1.534  0.752E-01  0.251E-01  0.251E-01  0.251E-01
  -1.434  0.727E-01  0.242E-01  0.242E-01  0.242E-01
  -1.334  0.705E-01  0.235E-01  0.235E-01  0.235E-01
  -1.234  0.691E-01  0.230E-01  0.230E-01  0.230E-01
  -1.134  0.686E-01  0.229E-01  0.229E-01  0.229E-01
  -1.034  0.687E-01  0.229E-01  0.229E-01  0.229E-01
  -0.934  0.686E-01  0.229E-01  0.229E-01  0.229E-01
  -0.834  0.678E-01  0.226E-01  0.226E-01  0.226E-01
  -0.734  0.665E-01  0.222E-01  0.222E-01  0.222E-01
  -0.634  0.651E-01  0.217E-01  0.217E-01  0.217E-01
  -0.534  0.645E-01  0.215E-01  0.215E-01  0.215E-01
  -0.434  0.653E-01  0.218E-01  0.218E-01  0.218E-01
  -0.334  0.677E-01  0.226E-01  0.226E-01  0.226E-01
  -0.234  0.714E-01  0.238E-01  0.238E-01  0.238E-01
  -0.134  0.757E-01  0.252E-01  0.252E-01  0.252E-01
  -0.034  0.802E-01  0.267E-01  0.267E-01  0.267E-01
   0.066  0.843E-01  0.281E-01  0.281E-01  0.281E-01
   0.166  0.879E-01  0.293E-01  0.293E-01  0.293E-01
   0.266  0.908E-01  0.303E-01  0.303E-01  0.303E-01
   0.366  0.934E-01  0.311E-01  0.311E-01  0.311E-01
   0.466  0.959E-01  0.320E-01  0.320E-01  0.320E-01
   0.566  0.985E-01  0.328E-01  0.328E-01  0.328E-01
   0.666  0.101E+00  0.337E-01  0.337E-01  0.337E-01
   0.766  0.104E+00  0.345E-01  0.345E-01  0.345E-01
   0.866  0.106E+00  0.354E-01  0.354E-01  0.354E-01
   0.966  0.109E+00  0.363E-01  0.363E-01  0.363E-01
   1.066  0.113E+00  0.378E-01  0.378E-01  0.378E-01
   1.166  0.120E+00  0.401E-01  0.401E-01  0.401E-01
   1.266  0.130E+00  0.433E-01  0.433E-01  0.433E-01
   1.366  0.142E+00  0.473E-01  0.473E-01  0.473E-01
   1.466  0.155E+00  0.515E-01  0.515E-01  0.515E-01
   1.566  0.166E+00  0.552E-01  0.552E-01  0.552E-01
   1.666  0.173E+00  0.578E-01  0.578E-01  0.578E-01
   1.766  0.177E+00  0.589E-01  0.589E-01  0.589E-01
   1.866  0.176E+00  0.588E-01  0.588E-01  0.588E-01
   1.966  0.173E+00  0.578E-01  0.578E-01  0.578E-01
   2.066  0.169E+00  0.562E-01  0.562E-01  0.562E-01
   2.166  0.163E+00  0.542E-01  0.542E-01  0.542E-01
   2.266  0.155E+00  0.518E-01  0.518E-01  0.518E-01
   2.366  0.147E+00  0.489E-01  0.489E-01  0.489E-01
   2.466  0.138E+00  0.460E-01  0.460E-01  0.460E-01
   2.566  0.130E+00  0.434E-01  0.434E-01  0.434E-01
   2.666  0.124E+00  0.415E-01  0.415E-01  0.415E-01
   2.766  0.121E+00  0.402E-01  0.402E-01  0.402E-01
   2.866  0.118E+00  0.394E-01  0.394E-01  0.394E-01
   2.966  0.115E+00  0.385E-01  0.385E-01  0.385E-01
   3.066  0.112E+00  0.374E-01  0.374E-01  0.374E-01
   3.166  0.109E+00  0.363E-01  0.363E-01  0.363E-01
   3.266  0.107E+00  0.357E-01  0.357E-01  0.357E-01
   3.366  0.108E+00  0.359E-01  0.359E-01  0.359E-01
   3.466  0.112E+00  0.373E-01  0.373E-01  0.373E-01
   3.566  0.119E+00  0.397E-01  0.397E-01  0.397E-01
   3.666  0.128E+00  0.426E-01  0.426E-01  0.426E-01
   3.766  0.138E+00  0.459E-01  0.459E-01  0.459E-01
   3.866  0.148E+00  0.493E-01  0.493E-01  0.493E-01
   3.966  0.159E+00  0.529E-01  0.529E-01  0.529E-01
   4.066  0.170E+00  0.566E-01  0.566E-01  0.566E-01
   4.166  0.182E+00  0.606E-01  0.606E-01  0.606E-01
   4.266  0.193E+00  0.643E-01  0.643E-01  0.643E-01
   4.366  0.202E+00  0.675E-01  0.675E-01  0.675E-01
   4.466  0.209E+00  0.697E-01  0.697E-01  0.697E-01
   4.566  0.212E+00  0.708E-01  0.708E-01  0.708E-01
   4.666  0.213E+00  0.711E-01  0.711E-01  0.711E-01
   4.766  0.213E+00  0.711E-01  0.711E-01  0.711E-01
   4.866  0.214E+00  0.712E-01  0.712E-01  0.712E-01
   4.966  0.215E+00  0.718E-01  0.718E-01  0.718E-01
   5.066  0.218E+00  0.728E-01  0.728E-01  0.728E-01
   5.166  0.222E+00  0.740E-01  0.740E-01  0.740E-01
   5.266  0.225E+00  0.750E-01  0.750E-01  0.750E-01
   5.366  0.227E+00  0.757E-01  0.757E-01  0.757E-01
   5.466  0.229E+00  0.762E-01  0.762E-01  0.762E-01
   5.566  0.230E+00  0.768E-01  0.768E-01  0.768E-01
   5.666  0.234E+00  0.779E-01  0.779E-01  0.779E-01
   5.766  0.239E+00  0.797E-01  0.797E-01  0.797E-01
   5.866  0.246E+00  0.821E-01  0.821E-01  0.821E-01
   5.966  0.254E+00  0.848E-01  0.848E-01  0.848E-01
   6.066  0.262E+00  0.872E-01  0.872E-01  0.872E-01
   6.166  0.268E+00  0.894E-01  0.894E-01  0.894E-01
   6.266  0.275E+00  0.915E-01  0.915E-01  0.915E-01
   6.366  0.282E+00  0.940E-01  0.940E-01  0.940E-01
   6.466  0.292E+00  0.974E-01  0.974E-01  0.974E-01
   6.566  0.305E+00  0.102E+00  0.102E+00  0.102E+00
   6.666  0.319E+00  0.106E+00  0.106E+00  0.106E+00
   6.766  0.332E+00  0.111E+00  0.111E+00  0.111E+00
   6.866  0.343E+00  0.114E+00  0.114E+00  0.114E+00
   6.966  0.352E+00  0.117E+00  0.117E+00  0.117E+00
   7.066  0.357E+00  0.119E+00  0.119E+00  0.119E+00
   7.166  0.358E+00  0.119E+00  0.119E+00  0.119E+00
   7.266  0.356E+00  0.119E+00  0.119E+00  0.119E+00
   7.366  0.353E+00  0.118E+00  0.118E+00  0.118E+00
   7.466  0.350E+00  0.117E+00  0.117E+00  0.117E+00
   7.566  0.349E+00  0.116E+00  0.116E+00  0.116E+00
   7.666  0.350E+00  0.117E+00  0.117E+00  0.117E+00
   7.766  0.353E+00  0.118E+00  0.118E+00  0.118E+00
   7.866  0.353E+00  0.118E+00  0.118E+00  0.118E+00
   7.966  0.351E+00  0.117E+00  0.117E+00  0.117E+00
   8.066  0.346E+00  0.115E+00  0.115E+00  0.115E+00
   8.166  0.339E+00  0.113E+00  0.113E+00  0.113E+00
   8.266  0.334E+00  0.111E+00  0.111E+00  0.111E+00
   8.366  0.332E+00  0.111E+00  0.111E+00  0.111E+00
   8.466  0.331E+00  0.110E+00  0.110E+00  0.110E+00
   8.566  0.331E+00  0.110E+00  0.110E+00  0.110E+00
   8.666  0.331E+00  0.110E+00  0.110E+00  0.110E+00
   8.766  0.331E+00  0.110E+00  0.110E+00  0.110E+00
   8.866  0.330E+00  0.110E+00  0.110E+00  0.110E+00
   8.966  0.328E+00  0.109E+00  0.109E+00  0.109E+00
   9.066  0.325E+00  0.108E+00  0.108E+00  0.108E+00
   9.166  0.321E+00  0.107E+00  0.107E+00  0.107E+00
   9.266  0.317E+00  0.106E+00  0.106E+00  0.106E+00
   9.366  0.314E+00  0.105E+00  0.105E+00  0.105E+00
   9.466  0.312E+00  0.104E+00  0.104E+00  0.104E+00
   9.566  0.311E+00  0.104E+00  0.104E+00  0.104E+00
   9.666  0.310E+00  0.103E+00  0.103E+00  0.103E+00
   9.766  0.309E+00  0.103E+00  0.103E+00  0.103E+00
   9.866  0.308E+00  0.103E+00  0.103E+00  0.103E+00
   9.966  0.304E+00  0.101E+00  0.101E+00  0.101E+00
  10.066  0.298E+00  0.992E-01  0.992E-01  0.992E-01
  10.166  0.288E+00  0.961E-01  0.961E-01  0.961E-01
  10.266  0.276E+00  0.920E-01  0.920E-01  0.920E-01
  10.366  0.262E+00  0.872E-01  0.872E-01  0.872E-01
  10.466  0.246E+00  0.820E-01  0.820E-01  0.820E-01
  10.566  0.230E+00  0.767E-01  0.767E-01  0.767E-01
  10.666  0.215E+00  0.716E-01  0.716E-01  0.716E-01
  10.766  0.201E+00  0.669E-01  0.669E-01  0.669E-01
  10.866  0.188E+00  0.627E-01  0.627E-01  0.627E-01
  10.966  0.176E+00  0.587E-01  0.587E-01  0.587E-01
  11.066  0.165E+00  0.549E-01  0.549E-01  0.549E-01
  11.166  0.153E+00  0.511E-01  0.511E-01  0.511E-01
  11.266  0.143E+00  0.477E-01  0.477E-01  0.477E-01
  11.366  0.134E+00  0.445E-01  0.445E-01  0.445E-01
  11.466  0.125E+00  0.417E-01  0.417E-01  0.417E-01
  11.566  0.118E+00  0.393E-01  0.393E-01  0.393E-01
  11.666  0.111E+00  0.371E-01  0.371E-01  0.371E-01
  11.766  0.105E+00  0.350E-01  0.350E-01  0.350E-01
  11.866  0.989E-01  0.330E-01  0.330E-01  0.330E-01
  11.966  0.927E-01  0.309E-01  0.309E-01  0.309E-01
  12.066  0.862E-01  0.287E-01  0.287E-01  0.287E-01
  12.166  0.796E-01  0.265E-01  0.265E-01  0.265E-01
  12.266  0.731E-01  0.244E-01  0.244E-01  0.244E-01
  12.366  0.668E-01  0.223E-01  0.223E-01  0.223E-01
  12.466  0.608E-01  0.203E-01  0.203E-01  0.203E-01
  12.566  0.548E-01  0.183E-01  0.183E-01  0.183E-01
  12.666  0.486E-01  0.162E-01  0.162E-01  0.162E-01
  12.766  0.421E-01  0.140E-01  0.140E-01  0.140E-01
  12.866  0.353E-01  0.118E-01  0.118E-01  0.118E-01
  12.966  0.284E-01  0.945E-02  0.945E-02  0.945E-02
  13.066  0.216E-01  0.721E-02  0.721E-02  0.721E-02
  13.166  0.155E-01  0.518E-02  0.518E-02  0.518E-02
  13.266  0.104E-01  0.348E-02  0.348E-02  0.348E-02
  13.366  0.650E-02  0.217E-02  0.217E-02  0.217E-02
  13.466  0.373E-02  0.124E-02  0.124E-02  0.124E-02
  13.566  0.196E-02  0.653E-03  0.653E-03  0.653E-03
  13.666  0.941E-03  0.314E-03  0.314E-03  0.314E-03
  13.766  0.410E-03  0.137E-03  0.137E-03  0.137E-03
  13.866  0.162E-03  0.538E-04  0.538E-04  0.538E-04
  13.966  0.574E-04  0.191E-04  0.191E-04  0.191E-04
  14.066  0.184E-04  0.612E-05  0.612E-05  0.612E-05
  14.166  0.527E-05  0.176E-05  0.176E-05  0.176E-05
  14.266  0.136E-05  0.452E-06  0.452E-06  0.452E-06
  14.366  0.312E-06  0.104E-06  0.104E-06  0.104E-06
  14.466  0.643E-07  0.214E-07  0.214E-07  0.214E-07
  14.566  0.118E-07  0.395E-08  0.395E-08  0.395E-08
  14.666  0.195E-08  0.649E-09  0.649E-09  0.649E-09
  14.766  0.286E-09  0.952E-10  0.952E-10  0.952E-10
  14.866  0.374E-10  0.125E-10  0.125E-10  0.125E-10
  14.966  0.437E-11  0.146E-11  0.146E-11  0.146E-11
  15.066  0.454E-12  0.151E-12  0.151E-12  0.151E-12
  15.166  0.453E-13  0.151E-13  0.151E-13  0.151E-13
  15.266  0.430E-13  0.143E-13  0.143E-13  0.143E-13
  15.366  0.440E-12  0.147E-12  0.147E-12  0.147E-12
  15.466  0.412E-11  0.137E-11  0.137E-11  0.137E-11
  15.566  0.343E-10  0.114E-10  0.114E-10  0.114E-10
  15.666  0.254E-09  0.845E-10  0.845E-10  0.845E-10
  15.766  0.167E-08  0.558E-09  0.558E-09  0.558E-09
  15.866  0.985E-08  0.328E-08  0.328E-08  0.328E-08
  15.966  0.519E-07  0.173E-07  0.173E-07  0.173E-07
  16.066  0.244E-06  0.814E-07  0.814E-07  0.814E-07
  16.166  0.103E-05  0.344E-06  0.344E-06  0.344E-06
  16.266  0.391E-05  0.130E-05  0.130E-05  0.130E-05
  16.366  0.133E-04  0.445E-05  0.445E-05  0.445E-05
  16.466  0.410E-04  0.137E-04  0.137E-04  0.137E-04
  16.566  0.114E-03  0.380E-04  0.380E-04  0.380E-04
  16.666  0.288E-03  0.959E-04  0.959E-04  0.959E-04
  16.766  0.659E-03  0.220E-03  0.220E-03  0.220E-03
  16.866  0.138E-02  0.459E-03  0.459E-03  0.459E-03
  16.966  0.263E-02  0.877E-03  0.877E-03  0.877E-03
  17.066  0.462E-02  0.154E-02  0.154E-02  0.154E-02
  17.166  0.748E-02  0.249E-02  0.249E-02  0.249E-02
  17.266  0.113E-01  0.376E-02  0.376E-02  0.376E-02
  17.366  0.159E-01  0.529E-02  0.529E-02  0.529E-02
  17.466  0.211E-01  0.705E-02  0.705E-02  0.705E-02
  17.566  0.269E-01  0.896E-02  0.896E-02  0.896E-02
  17.666  0.329E-01  0.110E-01  0.110E-01  0.110E-01
  17.766  0.393E-01  0.131E-01  0.131E-01  0.131E-01
  17.866  0.461E-01  0.154E-01  0.154E-01  0.154E-01
  17.966  0.532E-01  0.177E-01  0.177E-01  0.177E-01
  18.066  0.605E-01  0.202E-01  0.202E-01  0.202E-01
  18.166  0.679E-01  0.226E-01  0.226E-01  0.226E-01
  18.266  0.752E-01  0.251E-01  0.251E-01  0.251E-01
  18.366  0.827E-01  0.276E-01  0.276E-01  0.276E-01
  18.466  0.904E-01  0.301E-01  0.301E-01  0.301E-01
  18.566  0.985E-01  0.328E-01  0.328E-01  0.328E-01
  18.666  0.107E+00  0.356E-01  0.356E-01  0.356E-01
  18.766  0.115E+00  0.384E-01  0.384E-01  0.384E-01
  18.866  0.124E+00  0.412E-01  0.412E-01  0.412E-01
  18.966  0.132E+00  0.439E-01  0.439E-01  0.439E-01
  19.066  0.139E+00  0.465E-01  0.465E-01  0.465E-01
  19.166  0.147E+00  0.490E-01  0.490E-01  0.490E-01
  19.266  0.154E+00  0.513E-01  0.513E-01  0.513E-01
  19.366  0.161E+00  0.535E-01  0.535E-01  0.535E-01
  19.466  0.166E+00  0.555E-01  0.555E-01  0.555E-01
  19.566  0.172E+00  0.572E-01  0.572E-01  0.572E-01
  19.666  0.177E+00  0.588E-01  0.588E-01  0.588E-01
  19.766  0.181E+00  0.603E-01  0.603E-01  0.603E-01
  19.866  0.185E+00  0.618E-01  0.618E-01  0.618E-01
  19.966  0.190E+00  0.634E-01  0.634E-01  0.634E-01
  20.066  0.196E+00  0.653E-01  0.653E-01  0.653E-01
  20.166  0.204E+00  0.679E-01  0.679E-01  0.679E-01
  20.266  0.213E+00  0.709E-01  0.709E-01  0.709E-01
  20.366  0.223E+00  0.743E-01  0.743E-01  0.743E-01
  20.466  0.233E+00  0.776E-01  0.776E-01  0.776E-01
  20.566  0.243E+00  0.809E-01  0.809E-01  0.809E-01
  20.666  0.253E+00  0.845E-01  0.845E-01  0.845E-01
  20.766  0.266E+00  0.885E-01  0.885E-01  0.885E-01
  20.866  0.280E+00  0.934E-01  0.934E-01  0.934E-01
  20.966  0.296E+00  0.987E-01  0.987E-01  0.987E-01
  21.066  0.311E+00  0.104E+00  0.104E+00  0.104E+00
  21.166  0.325E+00  0.108E+00  0.108E+00  0.108E+00
  21.266  0.334E+00  0.111E+00  0.111E+00  0.111E+00
  21.366  0.340E+00  0.113E+00  0.113E+00  0.113E+00
  21.466  0.343E+00  0.114E+00  0.114E+00  0.114E+00
  21.566  0.343E+00  0.114E+00  0.114E+00  0.114E+00
  21.666  0.340E+00  0.113E+00  0.113E+00  0.113E+00
  21.766  0.335E+00  0.112E+00  0.112E+00  0.112E+00
  21.866  0.328E+00  0.109E+00  0.109E+00  0.109E+00
  21.966  0.320E+00  0.107E+00  0.107E+00  0.107E+00
  22.066  0.312E+00  0.104E+00  0.104E+00  0.104E+00
  22.166  0.304E+00  0.101E+00  0.101E+00  0.101E+00
  22.266  0.298E+00  0.992E-01  0.992E-01  0.992E-01
  22.366  0.294E+00  0.979E-01  0.979E-01  0.979E-01
  22.466  0.292E+00  0.974E-01  0.974E-01  0.974E-01
  22.566  0.292E+00  0.973E-01  0.973E-01  0.973E-01
  22.666  0.290E+00  0.967E-01  0.967E-01  0.967E-01
  22.766  0.285E+00  0.950E-01  0.950E-01  0.950E-01
  22.866  0.275E+00  0.915E-01  0.915E-01  0.915E-01
  22.966  0.260E+00  0.866E-01  0.866E-01  0.866E-01
  23.066  0.243E+00  0.810E-01  0.810E-01  0.810E-01
  23.166  0.228E+00  0.759E-01  0.759E-01  0.759E-01
  23.266  0.218E+00  0.725E-01  0.725E-01  0.725E-01
  23.366  0.214E+00  0.714E-01  0.714E-01  0.714E-01
  23.466  0.218E+00  0.726E-01  0.726E-01  0.726E-01
  23.566  0.226E+00  0.754E-01  0.754E-01  0.754E-01
  23.666  0.235E+00  0.784E-01  0.784E-01  0.784E-01
  23.766  0.241E+00  0.804E-01  0.804E-01  0.804E-01
  23.866  0.240E+00  0.799E-01  0.799E-01  0.799E-01
  23.966  0.229E+00  0.763E-01  0.763E-01  0.763E-01
  24.066  0.210E+00  0.700E-01  0.700E-01  0.700E-01
  24.166  0.187E+00  0.624E-01  0.624E-01  0.624E-01
  24.266  0.166E+00  0.554E-01  0.554E-01  0.554E-01
  24.366  0.152E+00  0.507E-01  0.507E-01  0.507E-01
  24.466  0.147E+00  0.491E-01  0.491E-01  0.491E-01
  24.566  0.152E+00  0.506E-01  0.506E-01  0.506E-01
  24.666  0.163E+00  0.543E-01  0.543E-01  0.543E-01
  24.766  0.177E+00  0.591E-01  0.591E-01  0.591E-01
  24.866  0.192E+00  0.639E-01  0.639E-01  0.639E-01
  24.966  0.202E+00  0.674E-01  0.674E-01  0.674E-01
  25.066  0.207E+00  0.688E-01  0.688E-01  0.688E-01
  25.166  0.204E+00  0.679E-01  0.679E-01  0.679E-01
  25.266  0.195E+00  0.650E-01  0.650E-01  0.650E-01
  25.366  0.183E+00  0.612E-01  0.612E-01  0.612E-01
  25.466  0.173E+00  0.576E-01  0.576E-01  0.576E-01
  25.566  0.166E+00  0.554E-01  0.554E-01  0.554E-01
  25.666  0.165E+00  0.550E-01  0.550E-01  0.550E-01
  25.766  0.170E+00  0.565E-01  0.565E-01  0.565E-01
  25.866  0.180E+00  0.599E-01  0.599E-01  0.599E-01
  25.966  0.194E+00  0.648E-01  0.648E-01  0.648E-01
  26.066  0.211E+00  0.704E-01  0.704E-01  0.704E-01
  26.166  0.227E+00  0.756E-01  0.756E-01  0.756E-01
  26.266  0.237E+00  0.791E-01  0.791E-01  0.791E-01
  26.366  0.240E+00  0.801E-01  0.801E-01  0.801E-01
  26.466  0.235E+00  0.784E-01  0.784E-01  0.784E-01
  26.566  0.223E+00  0.745E-01  0.745E-01  0.745E-01
  26.666  0.209E+00  0.697E-01  0.697E-01  0.697E-01
  26.766  0.196E+00  0.654E-01  0.654E-01  0.654E-01
  26.866  0.188E+00  0.628E-01  0.628E-01  0.628E-01
  26.966  0.188E+00  0.625E-01  0.625E-01  0.625E-01
  27.066  0.193E+00  0.644E-01  0.644E-01  0.644E-01
  27.166  0.204E+00  0.681E-01  0.681E-01  0.681E-01
  27.266  0.219E+00  0.729E-01  0.729E-01  0.729E-01
  27.366  0.235E+00  0.783E-01  0.783E-01  0.783E-01
  27.466  0.251E+00  0.835E-01  0.835E-01  0.835E-01
  27.566  0.263E+00  0.875E-01  0.875E-01  0.875E-01
  27.666  0.268E+00  0.892E-01  0.892E-01  0.892E-01
  27.766  0.264E+00  0.880E-01  0.880E-01  0.880E-01
  27.866  0.253E+00  0.842E-01  0.842E-01  0.842E-01
  27.966  0.237E+00  0.791E-01  0.791E-01  0.791E-01
  28.066  0.223E+00  0.744E-01  0.744E-01  0.744E-01
  28.166  0.215E+00  0.715E-01  0.715E-01  0.715E-01
  28.266  0.213E+00  0.709E-01  0.709E-01  0.709E-01
  28.366  0.216E+00  0.718E-01  0.718E-01  0.718E-01
  28.466  0.219E+00  0.731E-01  0.731E-01  0.731E-01
  28.566  0.219E+00  0.731E-01  0.731E-01  0.731E-01
  28.666  0.213E+00  0.709E-01  0.709E-01  0.709E-01
  28.766  0.199E+00  0.662E-01  0.662E-01  0.662E-01
  28.866  0.179E+00  0.596E-01  0.596E-01  0.596E-01
  28.966  0.157E+00  0.522E-01  0.522E-01  0.522E-01
  29.066  0.136E+00  0.453E-01  0.453E-01  0.453E-01
  29.166  0.119E+00  0.397E-01  0.397E-01  0.397E-01
  29.266  0.107E+00  0.356E-01  0.356E-01  0.356E-01
  29.366  0.988E-01  0.329E-01  0.329E-01  0.329E-01
  29.466  0.928E-01  0.309E-01  0.309E-01  0.309E-01
  29.566  0.869E-01  0.290E-01  0.290E-01  0.290E-01
  29.666  0.801E-01  0.267E-01  0.267E-01  0.267E-01
  29.766  0.719E-01  0.240E-01  0.240E-01  0.240E-01
  29.866  0.629E-01  0.210E-01  0.210E-01  0.210E-01
  29.966  0.536E-01  0.179E-01  0.179E-01  0.179E-01
  30.066  0.445E-01  0.148E-01  0.148E-01  0.148E-01
  30.166  0.358E-01  0.119E-01  0.119E-01  0.119E-01
  30.266  0.275E-01  0.916E-02  0.916E-02  0.916E-02
  30.366  0.199E-01  0.663E-02  0.663E-02  0.663E-02
  30.466  0.134E-01  0.447E-02  0.447E-02  0.447E-02
  30.566  0.834E-02  0.278E-02  0.278E-02  0.278E-02
  30.666  0.474E-02  0.158E-02  0.158E-02  0.158E-02
  30.766  0.245E-02  0.815E-03  0.815E-03  0.815E-03
  30.866  0.114E-02  0.381E-03  0.381E-03  0.381E-03
  30.966  0.483E-03  0.161E-03  0.161E-03  0.161E-03
  31.066  0.184E-03  0.613E-04  0.613E-04  0.613E-04
  31.166  0.632E-04  0.211E-04  0.211E-04  0.211E-04
  31.266  0.195E-04  0.651E-05  0.651E-05  0.651E-05
  31.366  0.543E-05  0.181E-05  0.181E-05  0.181E-05
  31.466  0.136E-05  0.452E-06  0.452E-06  0.452E-06
  31.566  0.305E-06  0.102E-06  0.102E-06  0.102E-06
  31.666  0.615E-07  0.205E-07  0.205E-07  0.205E-07
