# E (eV)   ldos(E)   pdos(E)   
  -9.334  0.132E-06  0.132E-06
  -9.234  0.606E-06  0.606E-06
  -9.134  0.248E-05  0.248E-05
  -9.034  0.907E-05  0.907E-05
  -8.934  0.297E-04  0.297E-04
  -8.834  0.875E-04  0.875E-04
  -8.734  0.232E-03  0.232E-03
  -8.634  0.552E-03  0.552E-03
  -8.534  0.119E-02  0.119E-02
  -8.434  0.233E-02  0.233E-02
  -8.334  0.414E-02  0.414E-02
  -8.234  0.675E-02  0.675E-02
  -8.134  0.101E-01  0.101E-01
  -8.034  0.141E-01  0.141E-01
  -7.934  0.184E-01  0.184E-01
  -7.834  0.226E-01  0.226E-01
  -7.734  0.265E-01  0.265E-01
  -7.634  0.299E-01  0.299E-01
  -7.534  0.328E-01  0.328E-01
  -7.434  0.353E-01  0.353E-01
  -7.334  0.373E-01  0.373E-01
  -7.234  0.390E-01  0.390E-01
  -7.134  0.406E-01  0.406E-01
  -7.034  0.420E-01  0.420E-01
  -6.934  0.432E-01  0.432E-01
  -6.834  0.443E-01  0.443E-01
  -6.734  0.454E-01  0.454E-01
  -6.634  0.464E-01  0.464E-01
  -6.534  0.475E-01  0.475E-01
  -6.434  0.485E-01  0.485E-01
  -6.334  0.494E-01  0.494E-01
  -6.234  0.501E-01  0.501E-01
  -6.134  0.508E-01  0.508E-01
  -6.034  0.517E-01  0.517E-01
  -5.934  0.527E-01  0.527E-01
  -5.834  0.537E-01  0.537E-01
  -5.734  0.545E-01  0.545E-01
  -5.634  0.551E-01  0.551E-01
  -5.534  0.555E-01  0.555E-01
  -5.434  0.561E-01  0.561E-01
  -5.334  0.571E-01  0.571E-01
  -5.234  0.583E-01  0.583E-01
  -5.134  0.594E-01  0.594E-01
  -5.034  0.603E-01  0.603E-01
  -4.934  0.607E-01  0.607E-01
  -4.834  0.609E-01  0.609E-01
  -4.734  0.613E-01  0.613E-01
  -4.634  0.621E-01  0.621E-01
  -4.534  0.634E-01  0.634E-01
  -4.434  0.650E-01  0.650E-01
  -4.334  0.663E-01  0.663E-01
  -4.234  0.671E-01  0.671E-01
  -4.134  0.674E-01  0.674E-01
  -4.034  0.674E-01  0.674E-01
  -3.934  0.676E-01  0.676E-01
  -3.834  0.686E-01  0.686E-01
  -3.734  0.704E-01  0.704E-01
  -3.634  0.724E-01  0.724E-01
  -3.534  0.743E-01  0.743E-01
  -3.434  0.756E-01  0.756E-01
  -3.334  0.762E-01  0.762E-01
  -3.234  0.765E-01  0.765E-01
  -3.134  0.770E-01  0.770E-01
  -3.034  0.782E-01  0.782E-01
  -2.934  0.805E-01  0.805E-01
  -2.834  0.837E-01  0.837E-01
  -2.734  0.875E-01  0.875E-01
  -2.634  0.912E-01  0.912E-01
  -2.534  0.943E-01  0.943E-01
  -2.434  0.966E-01  0.966E-01
  -2.334  0.979E-01  0.979E-01
  -2.234  0.986E-01  0.986E-01
  -2.134  0.990E-01  0.990E-01
  -2.034  0.993E-01  0.993E-01
  -1.934  0.997E-01  0.997E-01
  -1.834  0.997E-01  0.997E-01
  -1.734  0.988E-01  0.988E-01
  -1.634  0.963E-01  0.963E-01
  -1.534  0.926E-01  0.926E-01
  -1.434  0.883E-01  0.883E-01
  -1.334  0.844E-01  0.844E-01
  -1.234  0.817E-01  0.817E-01
  -1.134  0.801E-01  0.801E-01
  -1.034  0.791E-01  0.791E-01
  -0.934  0.779E-01  0.779E-01
  -0.834  0.758E-01  0.758E-01
  -0.734  0.728E-01  0.728E-01
  -0.634  0.695E-01  0.695E-01
  -0.534  0.665E-01  0.665E-01
  -0.434  0.643E-01  0.643E-01
  -0.334  0.628E-01  0.628E-01
  -0.234  0.619E-01  0.619E-01
  -0.134  0.610E-01  0.610E-01
  -0.034  0.600E-01  0.600E-01
   0.066  0.586E-01  0.586E-01
   0.166  0.569E-01  0.569E-01
   0.266  0.550E-01  0.550E-01
   0.366  0.530E-01  0.530E-01
   0.466  0.512E-01  0.512E-01
   0.566  0.494E-01  0.494E-01
   0.666  0.478E-01  0.478E-01
   0.766  0.461E-01  0.461E-01
   0.866  0.446E-01  0.446E-01
   0.966  0.436E-01  0.436E-01
   1.066  0.440E-01  0.440E-01
   1.166  0.462E-01  0.462E-01
   1.266  0.504E-01  0.504E-01
   1.366  0.562E-01  0.562E-01
   1.466  0.628E-01  0.628E-01
   1.566  0.689E-01  0.689E-01
   1.666  0.736E-01  0.736E-01
   1.766  0.764E-01  0.764E-01
   1.866  0.773E-01  0.773E-01
   1.966  0.769E-01  0.769E-01
   2.066  0.755E-01  0.755E-01
   2.166  0.731E-01  0.731E-01
   2.266  0.699E-01  0.699E-01
   2.366  0.657E-01  0.657E-01
   2.466  0.613E-01  0.613E-01
   2.566  0.573E-01  0.573E-01
   2.666  0.542E-01  0.542E-01
   2.766  0.522E-01  0.522E-01
   2.866  0.508E-01  0.508E-01
   2.966  0.493E-01  0.493E-01
   3.066  0.473E-01  0.473E-01
   3.166  0.449E-01  0.449E-01
   3.266  0.425E-01  0.425E-01
   3.366  0.407E-01  0.407E-01
   3.466  0.397E-01  0.397E-01
   3.566  0.392E-01  0.392E-01
   3.666  0.389E-01  0.389E-01
   3.766  0.384E-01  0.384E-01
   3.866  0.377E-01  0.377E-01
   3.966  0.369E-01  0.369E-01
   4.066  0.364E-01  0.364E-01
   4.166  0.364E-01  0.364E-01
   4.266  0.367E-01  0.367E-01
   4.366  0.372E-01  0.372E-01
   4.466  0.376E-01  0.376E-01
   4.566  0.377E-01  0.377E-01
   4.666  0.374E-01  0.374E-01
   4.766  0.371E-01  0.371E-01
   4.866  0.368E-01  0.368E-01
   4.966  0.368E-01  0.368E-01
   5.066  0.369E-01  0.369E-01
   5.166  0.368E-01  0.368E-01
   5.266  0.365E-01  0.365E-01
   5.366  0.359E-01  0.359E-01
   5.466  0.352E-01  0.352E-01
   5.566  0.346E-01  0.346E-01
   5.666  0.343E-01  0.343E-01
   5.766  0.342E-01  0.342E-01
   5.866  0.342E-01  0.342E-01
   5.966  0.340E-01  0.340E-01
   6.066  0.335E-01  0.335E-01
   6.166  0.327E-01  0.327E-01
   6.266  0.317E-01  0.317E-01
   6.366  0.308E-01  0.308E-01
   6.466  0.302E-01  0.302E-01
   6.566  0.299E-01  0.299E-01
   6.666  0.297E-01  0.297E-01
   6.766  0.295E-01  0.295E-01
   6.866  0.290E-01  0.290E-01
   6.966  0.283E-01  0.283E-01
   7.066  0.274E-01  0.274E-01
   7.166  0.265E-01  0.265E-01
   7.266  0.255E-01  0.255E-01
   7.366  0.245E-01  0.245E-01
   7.466  0.237E-01  0.237E-01
   7.566  0.231E-01  0.231E-01
   7.666  0.227E-01  0.227E-01
   7.766  0.225E-01  0.225E-01
   7.866  0.223E-01  0.223E-01
   7.966  0.218E-01  0.218E-01
   8.066  0.209E-01  0.209E-01
   8.166  0.198E-01  0.198E-01
   8.266  0.187E-01  0.187E-01
   8.366  0.178E-01  0.178E-01
   8.466  0.171E-01  0.171E-01
   8.566  0.166E-01  0.166E-01
   8.666  0.163E-01  0.163E-01
   8.766  0.161E-01  0.161E-01
   8.866  0.157E-01  0.157E-01
   8.966  0.151E-01  0.151E-01
   9.066  0.144E-01  0.144E-01
   9.166  0.136E-01  0.136E-01
   9.266  0.127E-01  0.127E-01
   9.366  0.119E-01  0.119E-01
   9.466  0.113E-01  0.113E-01
   9.566  0.107E-01  0.107E-01
   9.666  0.103E-01  0.103E-01
   9.766  0.995E-02  0.995E-02
   9.866  0.958E-02  0.958E-02
   9.966  0.914E-02  0.914E-02
  10.066  0.860E-02  0.860E-02
  10.166  0.798E-02  0.798E-02
  10.266  0.734E-02  0.734E-02
  10.366  0.671E-02  0.671E-02
  10.466  0.616E-02  0.616E-02
  10.566  0.570E-02  0.570E-02
  10.666  0.534E-02  0.534E-02
  10.766  0.505E-02  0.505E-02
  10.866  0.478E-02  0.478E-02
  10.966  0.451E-02  0.451E-02
  11.066  0.420E-02  0.420E-02
  11.166  0.386E-02  0.386E-02
  11.266  0.349E-02  0.349E-02
  11.366  0.313E-02  0.313E-02
  11.466  0.281E-02  0.281E-02
  11.566  0.253E-02  0.253E-02
  11.666  0.229E-02  0.229E-02
  11.766  0.208E-02  0.208E-02
  11.866  0.190E-02  0.190E-02
  11.966  0.171E-02  0.171E-02
  12.066  0.152E-02  0.152E-02
  12.166  0.132E-02  0.132E-02
  12.266  0.112E-02  0.112E-02
  12.366  0.927E-03  0.927E-03
  12.466  0.756E-03  0.756E-03
  12.566  0.608E-03  0.608E-03
  12.666  0.481E-03  0.481E-03
  12.766  0.372E-03  0.372E-03
  12.866  0.280E-03  0.280E-03
  12.966  0.201E-03  0.201E-03
  13.066  0.137E-03  0.137E-03
  13.166  0.874E-04  0.874E-04
  13.266  0.515E-04  0.515E-04
  13.366  0.279E-04  0.279E-04
  13.466  0.138E-04  0.138E-04
  13.566  0.617E-05  0.617E-05
  13.666  0.250E-05  0.250E-05
  13.766  0.915E-06  0.915E-06
  13.866  0.301E-06  0.301E-06
  13.966  0.889E-07  0.889E-07
  14.066  0.235E-07  0.235E-07
  14.166  0.558E-08  0.558E-08
  14.266  0.118E-08  0.118E-08
  14.366  0.224E-09  0.224E-09
  14.466  0.378E-10  0.378E-10
  14.566  0.570E-11  0.570E-11
  14.666  0.766E-12  0.766E-12
  14.766  0.916E-13  0.916E-13
  14.866  0.972E-14  0.972E-14
  14.966  0.922E-15  0.922E-15
  15.066  0.697E-16  0.697E-16
  15.166  0.320E-14  0.320E-14
  15.266  0.386E-13  0.386E-13
  15.366  0.418E-12  0.418E-12
  15.466  0.391E-11  0.391E-11
  15.566  0.324E-10  0.324E-10
  15.666  0.240E-09  0.240E-09
  15.766  0.158E-08  0.158E-08
  15.866  0.929E-08  0.929E-08
  15.966  0.488E-07  0.488E-07
  16.066  0.229E-06  0.229E-06
  16.166  0.966E-06  0.966E-06
  16.266  0.365E-05  0.365E-05
  16.366  0.124E-04  0.124E-04
  16.466  0.380E-04  0.380E-04
  16.566  0.105E-03  0.105E-03
  16.666  0.264E-03  0.264E-03
  16.766  0.602E-03  0.602E-03
  16.866  0.125E-02  0.125E-02
  16.966  0.237E-02  0.237E-02
  17.066  0.413E-02  0.413E-02
  17.166  0.663E-02  0.663E-02
  17.266  0.989E-02  0.989E-02
  17.366  0.138E-01  0.138E-01
  17.466  0.181E-01  0.181E-01
  17.566  0.226E-01  0.226E-01
  17.666  0.272E-01  0.272E-01
  17.766  0.318E-01  0.318E-01
  17.866  0.363E-01  0.363E-01
  17.966  0.407E-01  0.407E-01
  18.066  0.449E-01  0.449E-01
  18.166  0.485E-01  0.485E-01
  18.266  0.514E-01  0.514E-01
  18.366  0.536E-01  0.536E-01
  18.466  0.552E-01  0.552E-01
  18.566  0.564E-01  0.564E-01
  18.666  0.575E-01  0.575E-01
  18.766  0.585E-01  0.585E-01
  18.866  0.595E-01  0.595E-01
  18.966  0.606E-01  0.606E-01
  19.066  0.618E-01  0.618E-01
  19.166  0.631E-01  0.631E-01
  19.266  0.643E-01  0.643E-01
  19.366  0.651E-01  0.651E-01
  19.466  0.654E-01  0.654E-01
  19.566  0.650E-01  0.650E-01
  19.666  0.642E-01  0.642E-01
  19.766  0.629E-01  0.629E-01
  19.866  0.614E-01  0.614E-01
  19.966  0.600E-01  0.600E-01
  20.066  0.592E-01  0.592E-01
  20.166  0.591E-01  0.591E-01
  20.266  0.600E-01  0.600E-01
  20.366  0.617E-01  0.617E-01
  20.466  0.638E-01  0.638E-01
  20.566  0.656E-01  0.656E-01
  20.666  0.669E-01  0.669E-01
  20.766  0.674E-01  0.674E-01
  20.866  0.674E-01  0.674E-01
  20.966  0.669E-01  0.669E-01
  21.066  0.659E-01  0.659E-01
  21.166  0.644E-01  0.644E-01
  21.266  0.628E-01  0.628E-01
  21.366  0.617E-01  0.617E-01
  21.466  0.618E-01  0.618E-01
  21.566  0.639E-01  0.639E-01
  21.666  0.683E-01  0.683E-01
  21.766  0.747E-01  0.747E-01
  21.866  0.823E-01  0.823E-01
  21.966  0.899E-01  0.899E-01
  22.066  0.962E-01  0.962E-01
  22.166  0.100E+00  0.100E+00
  22.266  0.102E+00  0.102E+00
  22.366  0.101E+00  0.101E+00
  22.466  0.100E+00  0.100E+00
  22.566  0.991E-01  0.991E-01
  22.666  0.982E-01  0.982E-01
  22.766  0.966E-01  0.966E-01
  22.866  0.933E-01  0.933E-01
  22.966  0.876E-01  0.876E-01
  23.066  0.799E-01  0.799E-01
  23.166  0.716E-01  0.716E-01
  23.266  0.645E-01  0.645E-01
  23.366  0.602E-01  0.602E-01
  23.466  0.594E-01  0.594E-01
  23.566  0.619E-01  0.619E-01
  23.666  0.666E-01  0.666E-01
  23.766  0.715E-01  0.715E-01
  23.866  0.748E-01  0.748E-01
  23.966  0.750E-01  0.750E-01
  24.066  0.719E-01  0.719E-01
  24.166  0.667E-01  0.667E-01
  24.266  0.614E-01  0.614E-01
  24.366  0.578E-01  0.578E-01
  24.466  0.570E-01  0.570E-01
  24.566  0.594E-01  0.594E-01
  24.666  0.649E-01  0.649E-01
  24.766  0.728E-01  0.728E-01
  24.866  0.820E-01  0.820E-01
  24.966  0.911E-01  0.911E-01
  25.066  0.985E-01  0.985E-01
  25.166  0.103E+00  0.103E+00
  25.266  0.104E+00  0.104E+00
  25.366  0.103E+00  0.103E+00
  25.466  0.100E+00  0.100E+00
  25.566  0.977E-01  0.977E-01
  25.666  0.967E-01  0.967E-01
  25.766  0.980E-01  0.980E-01
  25.866  0.102E+00  0.102E+00
  25.966  0.108E+00  0.108E+00
  26.066  0.115E+00  0.115E+00
  26.166  0.124E+00  0.124E+00
  26.266  0.132E+00  0.132E+00
  26.366  0.138E+00  0.138E+00
  26.466  0.144E+00  0.144E+00
  26.566  0.147E+00  0.147E+00
  26.666  0.148E+00  0.148E+00
  26.766  0.146E+00  0.146E+00
  26.866  0.142E+00  0.142E+00
  26.966  0.137E+00  0.137E+00
  27.066  0.130E+00  0.130E+00
  27.166  0.124E+00  0.124E+00
  27.266  0.118E+00  0.118E+00
  27.366  0.113E+00  0.113E+00
  27.466  0.111E+00  0.111E+00
  27.566  0.110E+00  0.110E+00
  27.666  0.109E+00  0.109E+00
  27.766  0.106E+00  0.106E+00
  27.866  0.101E+00  0.101E+00
  27.966  0.936E-01  0.936E-01
  28.066  0.857E-01  0.857E-01
  28.166  0.785E-01  0.785E-01
  28.266  0.726E-01  0.726E-01
  28.366  0.681E-01  0.681E-01
  28.466  0.642E-01  0.642E-01
  28.566  0.600E-01  0.600E-01
  28.666  0.548E-01  0.548E-01
  28.766  0.483E-01  0.483E-01
  28.866  0.408E-01  0.408E-01
  28.966  0.330E-01  0.330E-01
  29.066  0.256E-01  0.256E-01
  29.166  0.193E-01  0.193E-01
  29.266  0.144E-01  0.144E-01
  29.366  0.109E-01  0.109E-01
  29.466  0.849E-02  0.849E-02
  29.566  0.678E-02  0.678E-02
  29.666  0.546E-02  0.546E-02
  29.766  0.435E-02  0.435E-02
  29.866  0.337E-02  0.337E-02
  29.966  0.251E-02  0.251E-02
  30.066  0.180E-02  0.180E-02
  30.166  0.123E-02  0.123E-02
  30.266  0.808E-03  0.808E-03
  30.366  0.505E-03  0.505E-03
  30.466  0.298E-03  0.298E-03
  30.566  0.165E-03  0.165E-03
  30.666  0.843E-04  0.843E-04
  30.766  0.396E-04  0.396E-04
  30.866  0.169E-04  0.169E-04
  30.966  0.654E-05  0.654E-05
  31.066  0.228E-05  0.228E-05
  31.166  0.715E-06  0.715E-06
  31.266  0.201E-06  0.201E-06
  31.366  0.505E-07  0.505E-07
  31.466  0.113E-07  0.113E-07
  31.566  0.226E-08  0.226E-08
  31.666  0.404E-09  0.404E-09
