#  E (eV)   dos(E)     Int dos(E) EFermi =   13.180 eV
  -9.334  0.2778E-06  0.2778E-07
  -9.234  0.1274E-05  0.1552E-06
  -9.134  0.5226E-05  0.6778E-06
  -9.034  0.1919E-04  0.2597E-05
  -8.934  0.6318E-04  0.8915E-05
  -8.834  0.1868E-03  0.2759E-04
  -8.734  0.4968E-03  0.7727E-04
  -8.634  0.1192E-02  0.1965E-03
  -8.534  0.2587E-02  0.4552E-03
  -8.434  0.5098E-02  0.9649E-03
  -8.334  0.9161E-02  0.1881E-02
  -8.234  0.1509E-01  0.3390E-02
  -8.134  0.2294E-01  0.5684E-02
  -8.034  0.3241E-01  0.8926E-02
  -7.934  0.4292E-01  0.1322E-01
  -7.834  0.5377E-01  0.1859E-01
  -7.734  0.6433E-01  0.2503E-01
  -7.634  0.7421E-01  0.3245E-01
  -7.534  0.8323E-01  0.4077E-01
  -7.434  0.9139E-01  0.4991E-01
  -7.334  0.9882E-01  0.5979E-01
  -7.234  0.1057E+00  0.7036E-01
  -7.134  0.1121E+00  0.8157E-01
  -7.034  0.1182E+00  0.9340E-01
  -6.934  0.1240E+00  0.1058E+00
  -6.834  0.1294E+00  0.1187E+00
  -6.734  0.1346E+00  0.1322E+00
  -6.634  0.1398E+00  0.1462E+00
  -6.534  0.1450E+00  0.1607E+00
  -6.434  0.1500E+00  0.1757E+00
  -6.334  0.1546E+00  0.1911E+00
  -6.234  0.1588E+00  0.2070E+00
  -6.134  0.1629E+00  0.2233E+00
  -6.034  0.1674E+00  0.2400E+00
  -5.934  0.1723E+00  0.2573E+00
  -5.834  0.1773E+00  0.2750E+00
  -5.734  0.1815E+00  0.2931E+00
  -5.634  0.1849E+00  0.3116E+00
  -5.534  0.1879E+00  0.3304E+00
  -5.434  0.1914E+00  0.3496E+00
  -5.334  0.1960E+00  0.3692E+00
  -5.234  0.2014E+00  0.3893E+00
  -5.134  0.2066E+00  0.4100E+00
  -5.034  0.2107E+00  0.4310E+00
  -4.934  0.2134E+00  0.4524E+00
  -4.834  0.2153E+00  0.4739E+00
  -4.734  0.2177E+00  0.4957E+00
  -4.634  0.2217E+00  0.5178E+00
  -4.534  0.2273E+00  0.5406E+00
  -4.434  0.2338E+00  0.5639E+00
  -4.334  0.2396E+00  0.5879E+00
  -4.234  0.2433E+00  0.6122E+00
  -4.134  0.2448E+00  0.6367E+00
  -4.034  0.2454E+00  0.6612E+00
  -3.934  0.2472E+00  0.6860E+00
  -3.834  0.2515E+00  0.7111E+00
  -3.734  0.2584E+00  0.7370E+00
  -3.634  0.2665E+00  0.7636E+00
  -3.534  0.2737E+00  0.7910E+00
  -3.434  0.2785E+00  0.8188E+00
  -3.334  0.2809E+00  0.8469E+00
  -3.234  0.2819E+00  0.8751E+00
  -3.134  0.2835E+00  0.9035E+00
  -3.034  0.2877E+00  0.9322E+00
  -2.934  0.2955E+00  0.9618E+00
  -2.834  0.3063E+00  0.9924E+00
  -2.734  0.3186E+00  0.1024E+01
  -2.634  0.3303E+00  0.1057E+01
  -2.534  0.3396E+00  0.1091E+01
  -2.434  0.3457E+00  0.1126E+01
  -2.334  0.3487E+00  0.1161E+01
  -2.234  0.3498E+00  0.1196E+01
  -2.134  0.3506E+00  0.1231E+01
  -2.034  0.3522E+00  0.1266E+01
  -1.934  0.3548E+00  0.1301E+01
  -1.834  0.3566E+00  0.1337E+01
  -1.734  0.3551E+00  0.1373E+01
  -1.634  0.3485E+00  0.1407E+01
  -1.534  0.3369E+00  0.1441E+01
  -1.434  0.3232E+00  0.1473E+01
  -1.334  0.3109E+00  0.1505E+01
  -1.234  0.3026E+00  0.1535E+01
  -1.134  0.2986E+00  0.1565E+01
  -1.034  0.2967E+00  0.1594E+01
  -0.934  0.2940E+00  0.1624E+01
  -0.834  0.2883E+00  0.1653E+01
  -0.734  0.2796E+00  0.1681E+01
  -0.634  0.2702E+00  0.1708E+01
  -0.534  0.2630E+00  0.1734E+01
  -0.434  0.2602E+00  0.1760E+01
  -0.334  0.2621E+00  0.1786E+01
  -0.234  0.2676E+00  0.1813E+01
  -0.134  0.2748E+00  0.1840E+01
  -0.034  0.2818E+00  0.1868E+01
   0.066  0.2874E+00  0.1897E+01
   0.166  0.2912E+00  0.1926E+01
   0.266  0.2933E+00  0.1956E+01
   0.366  0.2946E+00  0.1985E+01
   0.466  0.2959E+00  0.2015E+01
   0.566  0.2978E+00  0.2045E+01
   0.666  0.2997E+00  0.2074E+01
   0.766  0.3014E+00  0.2105E+01
   0.866  0.3032E+00  0.2135E+01
   0.966  0.3072E+00  0.2166E+01
   1.066  0.3167E+00  0.2197E+01
   1.166  0.3347E+00  0.2231E+01
   1.266  0.3626E+00  0.2267E+01
   1.366  0.3985E+00  0.2307E+01
   1.466  0.4371E+00  0.2351E+01
   1.566  0.4716E+00  0.2398E+01
   1.666  0.4963E+00  0.2447E+01
   1.766  0.5087E+00  0.2498E+01
   1.866  0.5098E+00  0.2549E+01
   1.966  0.5029E+00  0.2600E+01
   2.066  0.4906E+00  0.2649E+01
   2.166  0.4738E+00  0.2696E+01
   2.266  0.4524E+00  0.2741E+01
   2.366  0.4269E+00  0.2784E+01
   2.466  0.4002E+00  0.2824E+01
   2.566  0.3764E+00  0.2862E+01
   2.666  0.3587E+00  0.2897E+01
   2.766  0.3472E+00  0.2932E+01
   2.866  0.3392E+00  0.2966E+01
   2.966  0.3309E+00  0.2999E+01
   3.066  0.3204E+00  0.3031E+01
   3.166  0.3089E+00  0.3062E+01
   3.266  0.3002E+00  0.3092E+01
   3.366  0.2982E+00  0.3122E+01
   3.466  0.3044E+00  0.3152E+01
   3.566  0.3177E+00  0.3184E+01
   3.666  0.3350E+00  0.3218E+01
   3.766  0.3537E+00  0.3253E+01
   3.866  0.3728E+00  0.3290E+01
   3.966  0.3926E+00  0.3330E+01
   4.066  0.4143E+00  0.3371E+01
   4.166  0.4377E+00  0.3415E+01
   4.266  0.4611E+00  0.3461E+01
   4.366  0.4812E+00  0.3509E+01
   4.466  0.4952E+00  0.3559E+01
   4.566  0.5021E+00  0.3609E+01
   4.666  0.5033E+00  0.3659E+01
   4.766  0.5023E+00  0.3709E+01
   4.866  0.5027E+00  0.3760E+01
   4.966  0.5061E+00  0.3810E+01
   5.066  0.5123E+00  0.3861E+01
   5.166  0.5192E+00  0.3913E+01
   5.266  0.5247E+00  0.3966E+01
   5.366  0.5278E+00  0.4019E+01
   5.466  0.5293E+00  0.4072E+01
   5.566  0.5317E+00  0.4125E+01
   5.666  0.5377E+00  0.4178E+01
   5.766  0.5484E+00  0.4233E+01
   5.866  0.5628E+00  0.4290E+01
   5.966  0.5783E+00  0.4347E+01
   6.066  0.5921E+00  0.4407E+01
   6.166  0.6034E+00  0.4467E+01
   6.266  0.6140E+00  0.4528E+01
   6.366  0.6273E+00  0.4591E+01
   6.466  0.6461E+00  0.4656E+01
   6.566  0.6707E+00  0.4723E+01
   6.666  0.6983E+00  0.4793E+01
   6.766  0.7249E+00  0.4865E+01
   6.866  0.7467E+00  0.4940E+01
   6.966  0.7619E+00  0.5016E+01
   7.066  0.7697E+00  0.5093E+01
   7.166  0.7705E+00  0.5170E+01
   7.266  0.7653E+00  0.5246E+01
   7.366  0.7566E+00  0.5322E+01
   7.466  0.7488E+00  0.5397E+01
   7.566  0.7456E+00  0.5472E+01
   7.666  0.7478E+00  0.5546E+01
   7.766  0.7520E+00  0.5622E+01
   7.866  0.7528E+00  0.5697E+01
   7.966  0.7467E+00  0.5772E+01
   8.066  0.7345E+00  0.5845E+01
   8.166  0.7200E+00  0.5917E+01
   8.266  0.7078E+00  0.5988E+01
   8.366  0.7003E+00  0.6058E+01
   8.466  0.6972E+00  0.6128E+01
   8.566  0.6968E+00  0.6197E+01
   8.666  0.6970E+00  0.6267E+01
   8.766  0.6961E+00  0.6336E+01
   8.866  0.6932E+00  0.6406E+01
   8.966  0.6877E+00  0.6475E+01
   9.066  0.6799E+00  0.6543E+01
   9.166  0.6707E+00  0.6610E+01
   9.266  0.6614E+00  0.6676E+01
   9.366  0.6536E+00  0.6741E+01
   9.466  0.6479E+00  0.6806E+01
   9.566  0.6444E+00  0.6870E+01
   9.666  0.6424E+00  0.6935E+01
   9.766  0.6403E+00  0.6999E+01
   9.866  0.6362E+00  0.7062E+01
   9.966  0.6280E+00  0.7125E+01
  10.066  0.6141E+00  0.7186E+01
  10.166  0.5940E+00  0.7246E+01
  10.266  0.5682E+00  0.7303E+01
  10.366  0.5381E+00  0.7356E+01
  10.466  0.5057E+00  0.7407E+01
  10.566  0.4729E+00  0.7454E+01
  10.666  0.4417E+00  0.7499E+01
  10.766  0.4130E+00  0.7540E+01
  10.866  0.3868E+00  0.7578E+01
  10.966  0.3623E+00  0.7615E+01
  11.066  0.3386E+00  0.7649E+01
  11.166  0.3156E+00  0.7680E+01
  11.266  0.2939E+00  0.7710E+01
  11.366  0.2743E+00  0.7737E+01
  11.466  0.2569E+00  0.7763E+01
  11.566  0.2416E+00  0.7787E+01
  11.666  0.2278E+00  0.7810E+01
  11.766  0.2150E+00  0.7831E+01
  11.866  0.2025E+00  0.7851E+01
  11.966  0.1896E+00  0.7870E+01
  12.066  0.1762E+00  0.7888E+01
  12.166  0.1626E+00  0.7904E+01
  12.266  0.1491E+00  0.7919E+01
  12.366  0.1362E+00  0.7933E+01
  12.466  0.1238E+00  0.7945E+01
  12.566  0.1114E+00  0.7956E+01
  12.666  0.9876E-01  0.7966E+01
  12.766  0.8546E-01  0.7975E+01
  12.866  0.7157E-01  0.7982E+01
  12.966  0.5747E-01  0.7988E+01
  13.066  0.4383E-01  0.7992E+01
  13.166  0.3147E-01  0.7995E+01
  13.266  0.2111E-01  0.7997E+01
  13.366  0.1313E-01  0.7999E+01
  13.466  0.7532E-02  0.7999E+01
  13.566  0.3960E-02  0.8000E+01
  13.666  0.1899E-02  0.8000E+01
  13.766  0.8271E-03  0.8000E+01
  13.866  0.3259E-03  0.8000E+01
  13.966  0.1158E-03  0.8000E+01
  14.066  0.3702E-04  0.8000E+01
  14.166  0.1063E-04  0.8000E+01
  14.266  0.2733E-05  0.8000E+01
  14.366  0.6294E-06  0.8000E+01
  14.466  0.1296E-06  0.8000E+01
  14.566  0.2385E-07  0.8000E+01
  14.666  0.3921E-08  0.8000E+01
  14.766  0.5753E-09  0.8000E+01
  14.866  0.7534E-10  0.8000E+01
  14.966  0.8802E-11  0.8000E+01
  15.066  0.9181E-12  0.8000E+01
  15.166  0.1002E-12  0.8000E+01
  15.266  0.1849E-12  0.8000E+01
  15.366  0.1866E-11  0.8000E+01
  15.466  0.1741E-10  0.8000E+01
  15.566  0.1446E-09  0.8000E+01
  15.666  0.1069E-08  0.8000E+01
  15.766  0.7053E-08  0.8000E+01
  15.866  0.4151E-07  0.8000E+01
  15.966  0.2183E-06  0.8000E+01
  16.066  0.1027E-05  0.8000E+01
  16.166  0.4332E-05  0.8000E+01
  16.266  0.1640E-04  0.8000E+01
  16.366  0.5589E-04  0.8000E+01
  16.466  0.1717E-03  0.8000E+01
  16.566  0.4767E-03  0.8000E+01
  16.666  0.1199E-02  0.8000E+01
  16.766  0.2742E-02  0.8000E+01
  16.866  0.5713E-02  0.8001E+01
  16.966  0.1089E-01  0.8002E+01
  17.066  0.1906E-01  0.8004E+01
  17.166  0.3080E-01  0.8007E+01
  17.266  0.4624E-01  0.8012E+01
  17.366  0.6495E-01  0.8018E+01
  17.466  0.8614E-01  0.8027E+01
  17.566  0.1090E+00  0.8038E+01
  17.666  0.1328E+00  0.8051E+01
  17.766  0.1576E+00  0.8067E+01
  17.866  0.1833E+00  0.8085E+01
  17.966  0.2096E+00  0.8106E+01
  18.066  0.2359E+00  0.8130E+01
  18.166  0.2612E+00  0.8156E+01
  18.266  0.2848E+00  0.8184E+01
  18.366  0.3067E+00  0.8215E+01
  18.466  0.3277E+00  0.8248E+01
  18.566  0.3487E+00  0.8283E+01
  18.666  0.3700E+00  0.8320E+01
  18.766  0.3915E+00  0.8359E+01
  18.866  0.4129E+00  0.8400E+01
  18.966  0.4342E+00  0.8443E+01
  19.066  0.4556E+00  0.8489E+01
  19.166  0.4768E+00  0.8537E+01
  19.266  0.4970E+00  0.8586E+01
  19.366  0.5150E+00  0.8638E+01
  19.466  0.5301E+00  0.8691E+01
  19.566  0.5425E+00  0.8745E+01
  19.666  0.5524E+00  0.8800E+01
  19.766  0.5603E+00  0.8856E+01
  19.866  0.5673E+00  0.8913E+01
  19.966  0.5753E+00  0.8971E+01
  20.066  0.5870E+00  0.9029E+01
  20.166  0.6047E+00  0.9090E+01
  20.266  0.6290E+00  0.9153E+01
  20.366  0.6581E+00  0.9219E+01
  20.466  0.6889E+00  0.9287E+01
  20.566  0.7191E+00  0.9359E+01
  20.666  0.7490E+00  0.9434E+01
  20.766  0.7804E+00  0.9512E+01
  20.866  0.8146E+00  0.9594E+01
  20.966  0.8502E+00  0.9679E+01
  21.066  0.8834E+00  0.9767E+01
  21.166  0.9100E+00  0.9858E+01
  21.266  0.9277E+00  0.9951E+01
  21.366  0.9376E+00  0.1004E+02
  21.466  0.9421E+00  0.1014E+02
  21.566  0.9439E+00  0.1023E+02
  21.666  0.9448E+00  0.1033E+02
  21.766  0.9452E+00  0.1042E+02
  21.866  0.9451E+00  0.1052E+02
  21.966  0.9436E+00  0.1061E+02
  22.066  0.9395E+00  0.1071E+02
  22.166  0.9330E+00  0.1080E+02
  22.266  0.9258E+00  0.1089E+02
  22.366  0.9208E+00  0.1098E+02
  22.466  0.9196E+00  0.1107E+02
  22.566  0.9206E+00  0.1117E+02
  22.666  0.9178E+00  0.1126E+02
  22.766  0.9038E+00  0.1135E+02
  22.866  0.8733E+00  0.1144E+02
  22.966  0.8264E+00  0.1152E+02
  23.066  0.7698E+00  0.1160E+02
  23.166  0.7153E+00  0.1167E+02
  23.266  0.6749E+00  0.1174E+02
  23.366  0.6571E+00  0.1180E+02
  23.466  0.6637E+00  0.1187E+02
  23.566  0.6895E+00  0.1194E+02
  23.666  0.7233E+00  0.1201E+02
  23.766  0.7504E+00  0.1208E+02
  23.866  0.7565E+00  0.1216E+02
  23.966  0.7334E+00  0.1223E+02
  24.066  0.6830E+00  0.1230E+02
  24.166  0.6172E+00  0.1236E+02
  24.266  0.5539E+00  0.1242E+02
  24.366  0.5093E+00  0.1247E+02
  24.466  0.4923E+00  0.1252E+02
  24.566  0.5033E+00  0.1257E+02
  24.666  0.5362E+00  0.1262E+02
  24.766  0.5820E+00  0.1268E+02
  24.866  0.6306E+00  0.1274E+02
  24.966  0.6722E+00  0.1281E+02
  25.066  0.6981E+00  0.1288E+02
  25.166  0.7038E+00  0.1295E+02
  25.266  0.6907E+00  0.1302E+02
  25.366  0.6664E+00  0.1309E+02
  25.466  0.6412E+00  0.1315E+02
  25.566  0.6241E+00  0.1321E+02
  25.666  0.6210E+00  0.1328E+02
  25.766  0.6344E+00  0.1334E+02
  25.866  0.6644E+00  0.1340E+02
  25.966  0.7084E+00  0.1348E+02
  26.066  0.7605E+00  0.1355E+02
  26.166  0.8119E+00  0.1363E+02
  26.266  0.8529E+00  0.1372E+02
  26.366  0.8760E+00  0.1381E+02
  26.466  0.8782E+00  0.1389E+02
  26.566  0.8619E+00  0.1398E+02
  26.666  0.8338E+00  0.1406E+02
  26.766  0.8027E+00  0.1414E+02
  26.866  0.7769E+00  0.1422E+02
  26.966  0.7613E+00  0.1430E+02
  27.066  0.7577E+00  0.1437E+02
  27.166  0.7657E+00  0.1445E+02
  27.266  0.7846E+00  0.1453E+02
  27.366  0.8127E+00  0.1461E+02
  27.466  0.8449E+00  0.1469E+02
  27.566  0.8722E+00  0.1478E+02
  27.666  0.8831E+00  0.1487E+02
  27.766  0.8697E+00  0.1496E+02
  27.866  0.8323E+00  0.1504E+02
  27.966  0.7806E+00  0.1512E+02
  28.066  0.7296E+00  0.1519E+02
  28.166  0.6922E+00  0.1526E+02
  28.266  0.6738E+00  0.1533E+02
  28.366  0.6701E+00  0.1539E+02
  28.466  0.6702E+00  0.1546E+02
  28.566  0.6615E+00  0.1553E+02
  28.666  0.6345E+00  0.1559E+02
  28.766  0.5860E+00  0.1565E+02
  28.866  0.5200E+00  0.1570E+02
  28.966  0.4457E+00  0.1575E+02
  29.066  0.3741E+00  0.1578E+02
  29.166  0.3140E+00  0.1581E+02
  29.266  0.2690E+00  0.1584E+02
  29.366  0.2379E+00  0.1587E+02
  29.466  0.2160E+00  0.1589E+02
  29.566  0.1978E+00  0.1591E+02
  29.666  0.1793E+00  0.1592E+02
  29.766  0.1593E+00  0.1594E+02
  29.866  0.1379E+00  0.1595E+02
  29.966  0.1165E+00  0.1597E+02
  30.066  0.9582E-01  0.1598E+02
  30.166  0.7631E-01  0.1598E+02
  30.266  0.5819E-01  0.1599E+02
  30.366  0.4191E-01  0.1599E+02
  30.466  0.2814E-01  0.1600E+02
  30.566  0.1742E-01  0.1600E+02
  30.666  0.9869E-02  0.1600E+02
  30.766  0.5083E-02  0.1600E+02
  30.866  0.2372E-02  0.1600E+02
  30.966  0.1000E-02  0.1600E+02
  31.066  0.3804E-03  0.1600E+02
  31.166  0.1304E-03  0.1600E+02
  31.266  0.4024E-04  0.1600E+02
  31.366  0.1117E-04  0.1600E+02
  31.466  0.2789E-05  0.1600E+02
  31.566  0.6256E-06  0.1600E+02
